File: XRD-MnOH2SO4.txt
  1    0    0    3      9.74000     9.072     100.0
  2    1    0    1      7.24000    12.215      75.0
  3    0    1    2      6.65000    13.304      75.0
  4    0    0    6      4.87000    18.202       2.0
  5    0    1    5      4.60000    19.280       2.0
  6    1    1    0      4.31000    20.591      16.0
  7    1    1    3      3.94300    22.531      10.0
  8    0    2    1      3.70500    24.000       8.0
  9    1    0    7      3.64300    24.414       6.0
 10    2    0    2      3.61900    24.579      10.0
 11    0    2    4      3.32500    26.791       2.0
 12    0    0    9      3.24500    27.464       2.0
 13    1    1    6      3.22800    27.611      18.0
 14    2    0    5      3.14700    28.337       2.0
 15    2    1    1      2.80900    31.832      10.0
 16    0    2    7      2.78400    32.125       2.0
 17    1    2    2      2.77200    32.268      10.0
 18    1    0   10      2.72400    32.853       2.0
 19    2    1    4      2.63400    34.009      50.0
 20    3    0    3      2.41000    37.281       2.0
 21    2    1    7      2.33800    38.473      12.0
 22    1    2    8      2.23400    40.340       2.0
 23    3    0    6      2.21700    40.663       4.0
 24    2    2    0      2.15500    41.887       2.0
 25    1    3    1      2.06600    43.782       6.0
 26    2    1   10      2.03100    44.577       2.0
 27    1    3    4      1.99400    45.450       2.0
 28    2    2    6      1.97300    45.961       4.0
 29    3    1    5      1.95200    46.485       4.0
 30    1    2   11      1.93500    46.917       4.0
 31    0    0    0      1.88000    48.376       2.0
 32    1    3    7      1.85500    49.071       2.0
 33    4    0    4      1.80900    50.405       2.0
 34    2    2    9      1.79600    50.795       2.0
 35    0    4    5      1.77800    51.347       2.0
 36    2    1   13      1.75900    51.942       4.0
 37    3    0   12      1.74100    52.520       2.0
 38    3    2    1      1.71000    53.547       2.0
 39    2    3    2      1.70200    53.819       2.0
 40    1    2   14      1.67900    54.617       2.0
 41    4    1    0      1.63000    56.403      30.0
 42    4    1    3      1.60800    57.246      18.0
 43    3    2    7      1.58600    58.115       2.0
 44    4    0   10      1.57300    58.642       2.0
 45    2    0   17      1.56300    59.054       2.0
 46    4    1    6      1.54700    59.726       4.0