File: XRD-pyrochroite.txt
  1    0    0    1      4.73400    18.729     100.0
  2    1    0    0      2.87694    31.061      29.7
  3    0    1    1      2.45854    36.518      88.0
  4    0    0    2      2.36700    37.984       2.3
  5    0    1    2      1.82786    49.849      40.4
  6    1    1    0      1.66100    55.260      19.5
  7    0    0    3      1.57800    58.438       1.8
  8    1    1    1      1.56732    58.875      15.2
  9    2    0    0      1.43847    64.756       2.8
 10    1    0    3      1.38354    67.664      10.3
 11    2    0    1      1.37633    68.067       8.7
 12    1    1    2      1.35964    69.020       2.5
 13    2    0    2      1.22927    77.604       6.7
 14    0    0    4      1.18350    81.214       1.2
 15    1    1    3      1.14403    84.648       2.5
 16    1    0    4      1.09451    89.463       2.0