File: XRD-R=1,5-dried.ASC
  3.020       92
  3.292       81
  3.564       80
  3.836       68
  4.108       80
  4.380       77
  4.652       96
  4.924       86
  5.196       90
  5.468       89
  5.740       94
  6.012       95
  6.284      106
  6.556       85
  6.828      107
  7.100       97
  7.372       98
  7.644      109
  7.916      155
  8.188      124
  8.460      116
  8.732      155
  9.004      354
  9.276      118
  9.548       90
  9.820      106
 10.092       96
 10.364       78
 10.636      104
 10.908       94
 11.180      104
 11.452      117
 11.724      127
 11.996      103
 12.268      116
 12.540      100
 12.812       94
 13.084      119
 13.356      107
 13.628       95
 13.900      102
 14.172      102
 14.444      116
 14.716      106
 14.988      118
 15.260      125
 15.532      118
 15.804      129
 16.076      159
 16.348      145
 16.620      167
 16.892      124
 17.164      129
 17.436      125
 17.708      133
 17.980      156
 18.252      157
 18.524      165
 18.796      192
 19.068      185
 19.340      140
 19.612      155
 19.884      145
 20.156      135
 20.428      151
 20.700      115
 20.972      117
 21.244      140
 21.516      121
 21.788      116
 22.060      120
 22.332      156
 22.604      157
 22.876      144
 23.148      158
 23.420      128
 23.692      181
 23.964      181
 24.236      323
 24.508      169
 24.780      145
 25.052      141
 25.324      153
 25.596      137
 25.868      135
 26.140      126
 26.412      129
 26.684      232
 26.956      146
 27.228      248
 27.500      403
 27.772      159
 28.044      219
 28.316      151
 28.588      145
 28.860      355
 29.132      146
 29.404      143
 29.676      142
 29.948      154
 30.220      146
 30.492      151
 30.764      181
 31.036      243
 31.308      259
 31.580      222
 31.852      365
 32.124      517
 32.396      174
 32.668      186
 32.940      203
 33.212      207
 33.484      255
 33.756     1054
 34.028      371
 34.300      207
 34.572      196
 34.844      191
 35.116      199
 35.388      210
 35.660      255
 35.932      266
 36.204      505
 36.476      396
 36.748      276
 37.020      236
 37.292      225
 37.564      216
 37.836      210
 38.108      224
 38.380      389
 38.652      253
 38.924      178
 39.196      181
 39.468      189
 39.740      189
 40.012      203
 40.284      208
 40.556      254
 40.828      207
 41.100      213
 41.372      200
 41.644      189
 41.916      209
 42.188      222
 42.460      174
 42.732      189
 43.004      193
 43.276      220
 43.548      222
 43.820      274
 44.092      203
 44.364      258
 44.636      232
 44.908      201
 45.180      220
 45.452      220
 45.724      243
 45.996      238
 46.268      240
 46.540      238
 46.812      296
 47.084      217
 47.356      221
 47.628      211
 47.900      266
 48.172      230
 48.444      268
 48.716      913
 48.988      297
 49.260      283
 49.532      298
 49.804      333
 50.076      283
 50.348      274
 50.620      362
 50.892      269
 51.164      241
 51.436      250
 51.708      365
 51.980      286
 52.252      252
 52.524      263
 52.796      233
 53.068      236
 53.340      266
 53.612      297
 53.884      256
 54.156      238
 54.428      471
 54.700      278
 54.972      261
 55.244      378
 55.516      339
 55.788      351
 56.060      395
 56.332      469
 56.604      307
 56.876      320
 57.148      381
 57.420      316
 57.692      321
 57.964      302
 58.236      326
 58.508      299
 58.780      330
 59.052      335
 59.324      453
 59.596      322
 59.868      331
 60.140      306
 60.412      289
 60.684      286
 60.956      296
 61.228      317
 61.500      256
 61.772      333
 62.044      291
 62.316      258
 62.588      270
 62.860      282
 63.132      306
 63.404      312
 63.676      290
 63.948      261
 64.220      252
 64.492      284
 64.764      294
 65.036      330
 65.308      309
 65.580      299
 65.852      280
 66.124      308
 66.396      301
 66.668      329
 66.940      312
 67.212      313
 67.484      381
 67.756      361
 68.028      375
 68.300      356
 68.572      304
 68.844      348
 69.116      314
 69.388      327
 69.660      289
 69.932      311
 70.204      311
 70.476      309
 70.748      304
 71.020      311
 71.292      329
 71.564      316
 71.836      327
 72.108      268
 72.380      335
 72.652      307
 72.924      402
 73.196      299
 73.468      319
 73.740      323
 74.012      404
 74.284      314
 74.556      315
 74.828      329
 75.100      306
 75.372      334
 75.644      324
 75.916      333
 76.188      330
 76.460      314
 76.732      345
 77.004      314
 77.276      365
 77.548      325
 77.820      330
 78.092      315
 78.364      329
 78.636      343
 78.908      346
 79.180      343
 79.452      318
 79.724      335
 79.979      351