File: XRD_R=1,5_wet.csv
5.00436 60.091 1.34942
5.41236 59.4806 1.34255
5.82036 60.8139 1.35751
6.22836 62.1723 1.37259
6.63636 62.8518 1.38007
7.04436 63.3343 1.38536
7.45236 62.2785 1.37376
7.86036 67.4332 1.42949
8.26836 70.9774 1.46657
8.67636 66.3613 1.41808
9.08436 86.7569 1.62142
9.49236 66.7407 1.42213
9.90036 70.1856 1.45837
10.3084 71.4624 1.47157
10.7164 76.4785 1.52234
11.1244 74.6195 1.50373
11.5324 81.8329 1.57473
11.9404 2657.04 8.97309
12.3484 85.147 1.6063
12.7564 82.2986 1.57921
13.1644 88.1107 1.63402
13.5724 88.9629 1.6419
13.9804 94.3336 1.69074
14.3884 98.9692 1.73178
14.7964 104.826 1.78228
15.2044 108.061 1.80958
15.6124 114.294 1.86103
16.0204 123.869 1.93742
16.4284 137.545 2.04157
16.8364 148.295 2.11986
17.2444 162.912 2.22188
17.6524 180.832 2.34089
18.0604 205.815 2.49736
18.4684 265.79 2.838
18.8764 303.367 3.03199
19.2844 281.659 2.92149
19.6924 289.818 2.96351
20.1004 298.431 3.00722
20.5084 306.212 3.04617
20.9164 304.716 3.03872
21.3244 294.618 2.98795
21.7324 281.563 2.92099
22.1404 272.759 2.87496
22.5484 261.636 2.81573
22.9564 248.914 2.74643
23.3644 242.396 2.71023
23.7724 253.146 2.76967
24.1804 236.74 2.67842
24.5884 218.325 2.57214
24.9964 210.601 2.52623
25.4044 207.659 2.50853
25.8124 203.523 2.48342
26.2204 202.272 2.47577
26.6284 253.214 2.77005
27.0364 197.447 2.44607
27.4444 196.374 2.43941
27.8524 193.744 2.42302
28.2604 190.341 2.40165
28.6684 194.603 2.42838
29.0764 189.406 2.39574
29.4844 189.63 2.39716
29.8924 188.335 2.38896
30.3004 187.113 2.3812
30.7084 191.508 2.409
31.1164 254.69 2.77811
31.5244 219.95 2.5817
31.9324 373.586 3.36464
32.3404 196.844 2.44233
32.7484 198.587 2.45312
33.1564 199.219 2.45702
33.5644 456.904 3.72097
33.9724 210.89 2.52796
34.3804 199.91 2.46128
34.7884 198.599 2.45319
35.1964 200.17 2.46288
35.6044 232.369 2.65358
36.0124 220.829 2.58685
36.4204 307.527 3.05271
36.8284 234.173 2.66386
37.2364 208.262 2.51217
37.6444 212.136 2.53542
38.0524 203.173 2.48128
38.4604 200.685 2.46604
38.8684 197.105 2.44395
39.2764 194.521 2.42787
39.6844 196.791 2.442
40.0924 193.695 2.42271
40.5004 189.604 2.39699
40.9084 189.044 2.39345
41.3164 188.466 2.38979
41.7244 187.637 2.38452
42.1324 185.505 2.37094
42.5404 182.41 2.35108
42.9484 181.434 2.34478
43.3564 354.007 3.27528
43.7644 185.069 2.36815
44.1724 181.519 2.34533
44.5804 182.33 2.35056
44.9884 177.18 2.31713
45.3964 182.562 2.35206
45.8044 173.918 2.2957
46.2124 175.502 2.30613
46.6204 174.077 2.29675
47.0284 195.7 2.43522
47.4364 170.511 2.2731
47.8444 174.363 2.29863
48.2524 179.025 2.32916
48.6604 365.28 3.32703
49.0684 267.397 2.84656
49.4764 192.68 2.41636
49.8844 317.622 3.1024
50.2924 185.957 2.37383
50.7004 185.673 2.37201
51.1084 171.507 2.27973
51.5164 173.02 2.28977
51.9244 175.2 2.30414
52.3324 169.946 2.26934
52.7404 169.126 2.26385
53.1484 181.472 2.34503
53.5564 176.778 2.3145
53.9644 184.004 2.36133
54.3724 189.252 2.39477
54.7804 171.218 2.27781
55.1884 176.666 2.31377
55.5964 191.35 2.408
56.0044 200.273 2.46351
56.4124 172.418 2.28578
56.8204 169.005 2.26305
57.2284 217.236 2.56572
57.6364 169.246 2.26466
58.0444 171.342 2.27864
58.4524 174.351 2.29856
58.8604 212.227 2.53596
59.2684 479.205 3.81069
59.6764 174.978 2.30269
60.0844 172.082 2.28355
60.4924 170.513 2.27312
60.9004 167.855 2.25533
61.3084 167.777 2.25481
61.7164 190.834 2.40475
62.1244 172.089 2.2836
62.5324 193.022 2.4185
62.9404 169.267 2.26479
63.3484 168.237 2.25789
63.7564 200.539 2.46515
64.1644 169.229 2.26454
64.5724 208.565 2.51399
64.9804 173.398 2.29226
65.3884 222.982 2.59943
65.7964 174.13 2.2971
66.2044 173.901 2.29559
66.6124 203.426 2.48283
67.0204 178.824 2.32786
67.4284 188.062 2.38722
67.8364 195.984 2.43699
68.2444 211.921 2.53414
68.6524 175.129 2.30368
69.0604 172.594 2.28695
69.4684 180.107 2.33619
69.8764 170.34 2.27196
70.2844 168.649 2.26066
70.6924 171.745 2.28131
71.1004 175.804 2.30812
71.5084 177.046 2.31626
71.9164 169.541 2.26663
72.3244 173.56 2.29334
72.7324 173.871 2.29539
73.1404 170.341 2.27197
73.5484 258.067 2.79646
73.9564 171.744 2.28131
74.3644 200.671 2.46596
74.7724 169.711 2.26777
75.1804 169.516 2.26646
75.5884 168.899 2.26234
75.9964 169.197 2.26433
76.4044 171.847 2.28199
76.8124 197.239 2.44478
77.2204 186.754 2.37891
77.6284 189.155 2.39415
78.0364 186.733 2.37878
78.4444 179.263 2.33071
78.8524 203.104 2.48086
79.2604 173.769 2.29472
79.6684 177.283 2.3178
80.0764 175.219 2.30427
80.4844 219.489 2.57899
80.8924 181.912 2.34787
81.3004 179.725 2.33371
81.7084 254.457 2.77683
82.1164 179.149 2.32997
82.5244 197.818 2.44837
82.9324 182.291 2.35031
83.3404 175.554 2.30647
83.7484 172.806 2.28835
84.1564 189.697 2.39758
84.5644 181.095 2.34259
84.9724 172.896 2.28895
85.3804 179.972 2.33532
85.7884 276.035 2.89218
86.1964 188.471 2.38982
86.6044 174.756 2.30123
87.0124 175.022 2.30297
87.4204 175.479 2.30598
87.8284 183.971 2.36112
88.2364 178.255 2.32415
88.6444 174.894 2.30214
89.0524 184.932 2.36728
89.4604 180.449 2.33841
89.8684 178.636 2.32663
90.2764 184.368 2.36366
90.6844 178.775 2.32754
91.0924 226.585 2.62034
91.5004 193.591 2.42207
91.9084 180.911 2.3414
92.3164 246.689 2.73412
92.7244 185.948 2.37377
93.1324 202.205 2.47536
93.5404 196.578 2.44068
93.9484 205.257 2.49398
94.3564 179.282 2.33083
94.7644 179.108 2.3297
95.1724 183.96 2.36105
95.5804 174.748 2.30117
95.9884 188.18 2.38798
96.3964 176.507 2.31273
96.8044 176.802 2.31466
97.2124 173.409 2.29234
97.6204 174.898 2.30216
98.0284 176.166 2.31049
98.4364 173.916 2.29569
98.8444 241.203 2.70355
99.2524 176.544 2.31297
99.6604 234.387 2.66508
100.068 178.474 2.32558
100.476 183.716 2.35948
100.884 175.774 2.30792
101.292 187.71 2.38499
101.7 187.71 2.38499
102.108 184.937 2.36731
102.516 201.544 2.47131
102.924 185.401 2.37028
103.332 184.961 2.36747
103.74 183.76 2.35976
104.148 183.053 2.35522
104.556 179.169 2.3301
104.964 179.346 2.33125
105.372 183.703 2.3594
105.78 196.091 2.43765
106.188 187.937 2.38643
106.596 187.746 2.38522
107.004 187.735 2.38515
107.412 185.578 2.37141
107.82 194.052 2.42495
108.228 193.806 2.42341
108.636 185.326 2.3698
109.044 181.782 2.34703
109.452 199.636 2.45959
109.86 187.013 2.38056
110.268 196.782 2.44194
110.676 197.891 2.44882
111.084 205.314 2.49432
111.492 195.856 2.43619
111.9 190.921 2.4053
112.308 183.915 2.36076
112.716 177.998 2.32247
113.124 182.44 2.35127
113.532 178.892 2.3283
113.94 178.516 2.32585
114.348 181.765 2.34692
114.756 182.724 2.3531
115.164 183.794 2.35998
115.572 202.123 2.47486
115.98 181.972 2.34826
116.388 187.542 2.38392
116.796 185.042 2.36798
117.204 192.438 2.41484
117.612 183.272 2.35663
118.02 183.741 2.35964
118.428 187.233 2.38196
118.836 198.867 2.45485
119.244 211.902 2.53402
119.652 190.453 2.40235
120.06 191.112 2.4065
120.468 188.288 2.38866
120.876 185.765 2.3726
121.284 197.305 2.44519
121.692 196.555 2.44053
122.1 188.847 2.3922
122.508 186.221 2.37551
122.916 194.668 2.42879
123.324 185.584 2.37144
123.732 193.258 2.41998
124.14 186.988 2.3804
124.548 183.376 2.3573
124.956 187.405 2.38305
124.99 192.699 2.41648